Si (Silicon) - Palik

wavelength (microns), Re(eps)
10, 11.7067
9.09836, 11.7091
9, 11.7094
8.34586, 11.7115
8, 11.7128
7.70833, 11.7141
7.16129, 11.7168
7, 11.7176
6.68675, 11.7197
6.27119, 11.7229
6, 11.7251
5.90426, 11.7262
5.57789, 11.7301
5.28571, 11.7339
5.02262, 11.7378
5, 11.7382
4.78448, 11.7422
4.5679, 11.7467
4.37008, 11.7512
4.18868, 11.7557
4.02174, 11.7602
4, 11.7608
3.8676, 11.7652
3.72483, 11.7704
3.59223, 11.7755
3.5, 11.7793
3.46875, 11.7809
3.4188, 11.7834
3.35347, 11.7865
3.3033, 11.7889
3.24561, 11.7921
3.14448, 11.7978
3.04945, 11.8036
3, 11.8068
2.96, 11.8096
2.87565, 11.8158
2.79597, 11.822
2.72059, 11.8283
2.7144, 11.8288
2.64916, 11.8349
2.5814, 11.8416
2.51701, 11.8483
2.5, 11.8501
2.45575, 11.8549
2.4373, 11.857
2.39741, 11.8599
2.34177, 11.8642
2.28866, 11.8685
2.2379, 11.8727
2.18935, 11.877
2.14286, 11.8813
2.0983, 11.8855
2.05556, 11.8898
2.01452, 11.8941
2, 11.8956
1.97509, 11.9025
1.93717, 11.9133
1.90068, 11.9242
1.86555, 11.935
1.83168, 11.9459
1.8, 11.9564
1.79903, 11.9568
1.76752, 11.9701
1.73709, 11.9834
1.70769, 11.9967
1.696, 12.0021
1.67927, 12.0097
1.65179, 12.0225
1.62518, 12.0353
1.6, 12.0478
1.59942, 12.0483
1.57447, 12.0666
1.55028, 12.085
1.532, 12.0993
1.52682, 12.1016
1.50407, 12.1119
1.48198, 12.1222
1.46053, 12.1325
1.43969, 12.1428
1.41944, 12.1532
1.4, 12.1634
1.39975, 12.1642
1.3806, 12.2264
1.372, 12.2549
1.36196, 12.2616
1.34383, 12.274
1.32616, 12.2864
1.30896, 12.2988
1.2922, 12.3112
1.27586, 12.3235
1.25993, 12.3359
1.24439, 12.3483
1.22924, 12.3607
1.21444, 12.3731
1.2, 12.3855
1.2, 12.3855
1.1859, 12.4029
1.17212, 12.4204
1.15866, 12.4379
1.14551, 12.4553
1.144, 12.4574
1.13265, 12.4888
1.127, 12.5047
1.12008, 12.5171
1.10778, 12.5396
1.09576, 12.562
1.08398, 12.5845
1.078, 12.5961
1.07246, 12.6077
1.06119, 12.6316
1.05014, 12.6554
1.03933, 12.6793
1.033, 12.6935
1.02873, 12.7039
1.01835, 12.7295
1.00817, 12.7551
0.998201, 12.7806
0.9919, 12.7971
0.988424, 12.8067
0.978836, 12.8336
0.969432, 12.8605
0.960208, 12.8875
0.9537, 12.9068
0.951157, 12.9148
0.942275, 12.9433
0.933558, 12.9719
0.925, 13.0004
0.9184, 13.0227
0.916598, 13.0291
0.908347, 13.0588
0.900243, 13.0885
0.892283, 13.1182
0.8856, 13.1435
0.884462, 13.1481
0.876777, 13.1794
0.869225, 13.2107
0.861801, 13.242
0.8551, 13.2707
0.854503, 13.2752
0.847328, 13.3293
0.840273, 13.3834
0.833333, 13.4375
0.8266, 13.4909
0.826508, 13.4914
0.819793, 13.5275
0.8157, 13.5497
0.813187, 13.5618
0.806686, 13.5935
0.8051, 13.6013
0.800288, 13.6321
0.7948, 13.6678
0.793991, 13.6724
0.787793, 13.7087
0.7847, 13.727
0.78169, 13.7473
0.775681, 13.7883
0.7749, 13.7937
0.769764, 13.8214
0.7653, 13.8458
0.763937, 13.8533
0.758197, 13.8855
0.756, 13.8979
0.752542, 13.9204
0.746972, 13.9571
0.7469, 13.9576
0.741483, 13.9984
0.738, 14.0249
0.736074, 14.0364
0.730744, 14.0686
0.7293, 14.0774
0.72549, 14.1075
0.7208, 14.145
0.720311, 14.1481
0.715206, 14.1808
0.7126, 14.1977
0.710173, 14.2201
0.70521, 14.2665
0.7045, 14.2731
0.700315, 14.3085
0.6965, 14.3412
0.695489, 14.3501
0.690728, 14.3922
0.6888, 14.4094
0.686032, 14.4342
0.6814, 14.476
0.6812, 14.4779
0.676829, 14.5226
0.6738, 14.554
0.67232, 14.5712
0.66787, 14.6231
0.6666, 14.6381
0.663479, 14.6749
0.6595, 14.7223
0.659145, 14.7262
0.654867, 14.7737
0.6526, 14.7992
0.650645, 14.8233
0.646476, 14.8754
0.6458, 14.8839
0.642361, 14.9312
0.6391, 14.9766
0.638298, 14.9879
0.634286, 15.0453
0.6326, 15.0696
0.630324, 15.0997
0.626411, 15.1521
0.6262, 15.155
0.622546, 15.2135
0.6199, 15.2564
0.618729, 15.2742
0.614958, 15.3322
0.6138, 15.3501
0.611233, 15.3935
0.6078, 15.4521
0.607553, 15.456
0.603917, 15.5141
0.6019, 15.5466
0.600324, 15.5743
0.596774, 15.6372
0.5961, 15.6492
0.593266, 15.7001
0.5904, 15.7521
0.589798, 15.7639
0.586371, 15.8319
0.5848, 15.8634
0.582983, 15.9008
0.579634, 15.9704
0.5794, 15.9753
0.576324, 16.0433
0.574, 16.0952
0.573051, 16.1152
0.569815, 16.1837
0.5687, 16.2075
0.566616, 16.2601
0.5636, 16.3367
0.563452, 16.3402
0.560323, 16.4143
0.5585, 16.4578
0.557229, 16.4908
0.554169, 16.5707
0.5535, 16.5883
0.551142, 16.6504
0.5486, 16.718
0.548148, 16.731
0.545187, 16.8168
0.5438, 16.8573
0.542257, 16.9028
0.539359, 16.9891
0.5391, 16.9968
0.536491, 17.0746
0.5344, 17.1376
0.533654, 17.1636
0.530846, 17.262
0.5299, 17.2954
0.528069, 17.3558
0.5254, 17.4445
0.525319, 17.4473
0.522599, 17.543
0.5209, 17.6033
0.519906, 17.6399
0.517241, 17.7387
0.5166, 17.7626
0.514604, 17.8407
0.5123, 17.9316
0.511993, 17.9438
0.509408, 18.0472
0.5081, 18.0998
0.506849, 18.157
0.504316, 18.2737
0.504, 18.2884
0.501808, 18.3837
0.4999, 18.4675
0.499325, 18.4945
0.496867, 18.611
0.4959, 18.6571
0.494432, 18.7315
0.492021, 18.8546
0.492, 18.8557
0.489634, 18.982
0.4881, 19.0644
0.48727, 19.11
0.484928, 19.2391
0.4843, 19.274
0.482609, 19.3733
0.4806, 19.4922
0.480312, 19.5101
0.478036, 19.6519
0.4769, 19.7233
0.475782, 19.7856
0.473549, 19.911
0.4732, 19.9308
0.471338, 20.0647
0.4696, 20.1906
0.469146, 20.2215
0.466975, 20.3702
0.4661, 20.4305
0.464824, 20.5329
0.462693, 20.7051
0.4626, 20.7126
0.460581, 20.8751
0.4592, 20.987
0.458488, 21.0482
0.456414, 21.2276
0.4558, 21.2811
0.454359, 21.4137
0.4525, 21.5862
0.452323, 21.6029
0.450304, 21.7938
0.4492, 21.8989
0.448304, 21.9932
0.446321, 22.2032
0.446, 22.2373
0.444355, 22.4048
0.4428, 22.5644
0.442407, 22.6098
0.440476, 22.8341
0.4397, 22.9248
0.438562, 23.0635
0.436664, 23.2964
0.4366, 23.3043
0.434783, 23.5369
0.4335, 23.7022
0.432917, 23.7847
0.431068, 24.0481
0.4305, 24.1294
0.429234, 24.3147
0.4275, 24.5703
0.427416, 24.5839
0.425613, 24.8787
0.4246, 25.0456
0.423826, 25.1746
0.422053, 25.4718
0.4217, 25.5314
0.420295, 25.7869
0.4189, 26.0423
0.418552, 26.1115
0.416823, 26.4566
0.4161, 26.6019
0.415108, 26.8117
0.413408, 27.1739
0.4133, 27.1969
0.411721, 27.5562
0.4105, 27.836
0.410048, 27.9488
0.408389, 28.3653
0.4078, 28.5138
0.406742, 28.8195
0.4052, 29.2682
0.405109, 29.2941
0.40349, 29.7603
0.4025, 30.047
0.401883, 30.2505
0.400288, 30.779
0.4, 30.8751
0.398707, 31.331
0.3974, 31.7947
0.397138, 31.898
0.395581, 32.5145
0.3949, 32.7856
0.394036, 33.1601
0.392504, 33.8286
0.3924, 33.8739
0.390983, 34.5467
0.3899, 35.064
0.389474, 35.2914
0.387976, 36.0943
0.3875, 36.3509
0.38649, 36.9116
0.385016, 37.7357
0.385, 37.7444
0.383552, 38.676
0.3827, 39.2276
0.3821, 39.6029
0.380658, 40.5089
0.3803, 40.7353
0.379228, 41.3834
0.378, 42.1301
0.377808, 42.2246
0.376399, 42.921
0.3757, 43.2683
0.375, 43.4082
0.373612, 43.6873
0.3734, 43.73
0.372233, 43.4171
0.3712, 43.1383
0.370865, 42.8869
0.369507, 41.8616
0.369, 41.4767
0.368159, 40.4466
0.366821, 38.7973
0.3668, 38.7714
0.365492, 36.5475
0.3647, 35.1924
0.364173, 34.3115
0.362864, 32.1105
0.3625, 31.4965
0.361564, 30.0292
0.3604, 28.1955
0.360273, 28.0401
0.358991, 26.4699
0.3583, 25.6188
0.357718, 25.059
0.356455, 23.8367
0.3563, 23.6864
0.3552, 23.0207
0.3542, 22.412
0.353954, 22.29
0.352717, 21.6739
0.3522, 21.4152
0.351488, 21.1529
0.350268, 20.7006
0.3502, 20.6753
0.349057, 20.3276
0.3483, 20.0963
0.347853, 19.9843
0.346658, 19.6832
0.3463, 19.5925
0.345472, 19.3817
0.3444, 19.1075
0.344293, 19.0834
0.343122, 18.8192
0.3425, 18.6781
0.341959, 18.5719
0.340804, 18.3438
0.3406, 18.3033
0.339657, 18.1246
0.3388, 17.9612
0.338518, 17.9049
0.337386, 17.6783
0.3369, 17.5804
0.336262, 17.4533
0.335145, 17.2298
0.3351, 17.2207
0.334036, 17.0147
0.3333, 16.8716
0.332933, 16.807
0.331839, 16.6134
0.3315, 16.5532
0.330751, 16.391
0.3297, 16.1621
0.32967, 16.1571
0.328597, 15.9753
0.328, 15.8737
0.32753, 15.7824
0.326471, 15.5753
0.3263, 15.5418
0.325418, 15.3745
0.3246, 15.2186
0.324372, 15.1765
0.323332, 14.9843
0.3229, 14.904
0.3223, 14.7732
0.321274, 14.5486
0.3212, 14.5324
0.320254, 14.378
0.3195, 14.2543
0.319241, 14.2033
0.318234, 14.0041
0.3179, 13.9378
0.317233, 13.8091
0.3163, 13.628
0.316239, 13.6166
0.315251, 13.4299
0.3147, 13.3252
0.31427, 13.2409
0.313294, 13.0489
0.3131, 13.0106
0.312324, 12.8295
0.3115, 12.6362
0.31136, 12.5989
0.310403, 12.342
0.31, 12.2335
0.309451, 12.0947
0.308505, 11.8544
0.3084, 11.8277
0.307564, 11.5577
0.3069, 11.3419
0.30663, 11.2403
0.305701, 10.8897
0.3054, 10.7756
0.304778, 10.5032
0.3039, 10.1172
0.30386, 10.0973
0.302948, 9.64235
0.3024, 9.36796
0.302041, 9.14295
0.301139, 8.57594
0.3009, 8.42475
0.300243, 7.90624
0.2995, 7.31638
0.299353, 7.18562
0.298467, 6.39663
0.298, 5.9783
0.297587, 5.49767
0.296712, 4.47459
0.2966, 4.34308
0.295842, 3.27862
0.2952, 2.37222
0.294977, 1.9859
0.294118, 0.488227
0.2938, -0.067319
0.293263, -1.16296
0.292413, -2.90467
0.2924, -2.93153
0.291568, -4.82786
0.291, -6.12934
0.290728, -6.82248
0.289893, -8.95999
0.2897, -9.45548
0.289062, -10.7976
0.2883, -12.4106
0.288237, -12.5247
0.287416, -14.0115
0.287, -14.7679
0.2866, -15.2486
0.285788, -16.227
0.2857, -16.3333
0.284981, -16.95
0.2844, -17.4503
0.284178, -17.5805
0.28338, -18.0507
0.2831, -18.2164
0.282587, -18.4557
0.2818, -18.8239
0.281797, -18.8249
0.281013, -19.1043
0.2805, -19.2877
0.280232, -19.3539
0.279456, -19.5464
0.2792, -19.6102
0.278684, -19.6969
0.278, -19.8124
0.277917, -19.8176
0.277154, -19.8648
0.2768, -19.8867
0.276394, -19.8658
0.275639, -19.8266
0.2755, -19.8193
0.274889, -19.7277
0.2743, -19.6392
0.274142, -19.6004
0.273399, -19.4176
0.2731, -19.3437
0.27266, -19.1937
0.271926, -18.942
0.2719, -18.9332
0.271195, -18.6534
0.2707, -18.4562
0.270468, -18.3551
0.269745, -18.039
0.2695, -17.9315
0.269026, -17.6834
0.2684, -17.3548
0.26831, -17.3129
0.267599, -16.9797
0.2672, -16.7922
0.266891, -16.6367
0.266187, -16.281
0.2661, -16.2369
0.265487, -15.9652
0.2649, -15.7041
0.26479, -15.6528
0.264097, -15.329
0.2638, -15.1896
0.263408, -15.0209
0.262722, -14.7248
0.2627, -14.7154
0.26204, -14.4543
0.2616, -14.2798
0.261361, -14.1865
0.260686, -13.9219
0.2605, -13.8489
0.260014, -13.6731
0.2594, -13.45
0.259346, -13.432
0.258681, -13.2108
0.2583, -13.0835
0.25802, -12.9936
0.257361, -12.7818
0.2572, -12.7297
0.256707, -12.5678
0.2562, -12.4008
0.256055, -12.36
0.255407, -12.1766
0.2551, -12.0893
0.254762, -11.9821
0.254121, -11.7775
0.2541, -11.7709
0.253483, -11.6217
0.253, -11.5046
0.252847, -11.4621
0.252215, -11.2857
0.252, -11.2254
0.251587, -11.1159
0.251, -10.9598
0.250961, -10.9495
0.250338, -10.7848
0.25, -10.695
0.249719, -10.6305
0.249102, -10.4886
0.249, -10.465
0.248489, -10.3524
0.248, -10.2443
0.247879, -10.2172
0.247271, -10.0812
0.247, -10.0203
0.246667, -9.95353
0.246065, -9.83254
0.246, -9.81939
0.245467, -9.71738
0.245, -9.62777
0.244871, -9.60157
0.244278, -9.48089
0.2441, -9.4445
0.243688, -9.38104
0.243101, -9.29018
0.2431, -9.29
0.242517, -9.19304
0.2422, -9.14013
0.241935, -9.10109
0.241357, -9.01538
0.2412, -8.99208
0.240781, -8.9468
0.2403, -8.89465
0.240208, -8.88441
0.239637, -8.82089
0.2394, -8.79437
0.23907, -8.77131
0.238505, -8.73174
0.2384, -8.7244
0.237942, -8.69573
0.2375, -8.66794
0.237382, -8.66574
0.236825, -8.65529
0.2366, -8.65105
0.236271, -8.65222
0.235719, -8.65417
0.2357, -8.65424
0.235169, -8.67145
0.2348, -8.68349
0.234623, -8.69643
0.234078, -8.73627
0.2339, -8.74937
0.233537, -8.78311
0.2331, -8.82381
0.232997, -8.83475
0.232461, -8.89219
0.2322, -8.92019
0.231926, -8.94885
0.231395, -9.00477
0.2313, -9.01475
0.230865, -9.05418
0.2305, -9.08742
0.230338, -9.10152
0.229814, -9.14738
0.2296, -9.16611
0.229291, -9.17718
0.2288, -9.19486
0.228772, -9.19557
0.228254, -9.20853
0.2279, -9.21744
0.227739, -9.21118
0.227226, -9.19117
0.2271, -9.18623
0.226716, -9.174
0.2263, -9.16072
0.226207, -9.15528
0.225702, -9.12544
0.2254, -9.1076
0.225198, -9.09345
0.224696, -9.05825
0.2246, -9.05146
0.224197, -9.0185
0.2238, -8.98589
0.2237, -8.97416
0.223205, -8.91588
0.223, -8.89163
0.222713, -8.86587
0.222222, -8.82176
0.2222, -8.81976
0.221734, -8.76372
0.2214, -8.72343
0.221248, -8.70966
0.220764, -8.66577
0.2206, -8.65088
0.220282, -8.61055
0.219802, -8.54953
0.2198, -8.54928
0.219324, -8.48593
0.2191, -8.45598
0.218849, -8.43849
0.218375, -8.40544
0.2183, -8.4002
0.217903, -8.34673
0.2175, -8.29214
0.217434, -8.2874
0.216966, -8.25378
0.2168, -8.24178
0.216501, -8.21444
0.216037, -8.17194
0.216, -8.1685
0.215576, -8.13268
0.2153, -8.1093
0.215116, -8.10085
0.214659, -8.07974
0.2145, -8.0724
0.214203, -8.0368
0.2138, -7.98834
0.213749, -7.98266
0.213297, -7.93196
0.213, -7.89846
0.212848, -7.89018
0.2124, -7.86578
0.2123, -7.86034
0.211953, -7.83824
0.2116, -7.81562
0.211509, -7.80563
0.211067, -7.75686
0.2109, -7.73843
0.210626, -7.73194
0.210187, -7.72152
0.2101, -7.71944
0.209751, -7.67709
0.2094, -7.63447
0.209315, -7.61703
0.208882, -7.52741
0.2087, -7.48961
0.208451, -7.51925
0.208021, -7.57051
0.208, -7.57302
0.207593, -7.53056
0.2073, -7.49989
0.207167, -7.60811
0.206742, -7.95402
0.2066, -7.44218
0.2066, -7.44218
0.20632, -7.44129
0.205899, -7.43995
0.205479, -7.4386
0.205062, -7.43726
0.204646, -7.43592
0.204232, -7.43458
0.203819, -7.43323
0.203408, -7.43189
0.202999, -7.43055
0.202592, -7.42921
0.202186, -7.42786
0.201781, -7.42652
0.201379, -7.42518
0.200978, -7.42384
0.200578, -7.42249
0.20018, -7.42115
0.199784, -7.41981
0.199389, -7.41846
0.198996, -7.41712
0.198604, -7.41578
0.1984, -7.41508
0.198214, -7.39931
0.197826, -7.36622
0.197439, -7.33312
0.197053, -7.30003
0.196669, -7.26694
0.196286, -7.23385
0.195905, -7.20076
0.195526, -7.16767
0.195148, -7.13458
0.194771, -7.10148
0.194396, -7.06839
0.194022, -7.0353
0.19365, -7.00221
0.193279, -6.96912
0.192909, -6.93603
0.192541, -6.90294
0.192175, -6.86984
0.191809, -6.83675
0.191445, -6.80366
0.191083, -6.77057
0.190722, -6.73748
0.1907, -6.73549
0.190362, -6.70516
0.190003, -6.67289
0.189646, -6.64063
0.189291, -6.60836
0.188936, -6.57609
0.188583, -6.54382
0.188231, -6.51156
0.187881, -6.47929
0.187532, -6.44702
0.187184, -6.41476
0.186837, -6.38249
0.186492, -6.35022
0.186148, -6.31795
0.185805, -6.28569
0.185464, -6.25342
0.185123, -6.22115
0.184784, -6.18888
0.184447, -6.15662
0.18411, -6.12435
0.183775, -6.09208
0.1837, -6.08486
0.183441, -6.0641
0.183108, -6.03736
0.182776, -6.01061
0.182446, -5.98387
0.182116, -5.95713
0.181788, -5.93038
0.181462, -5.90364
0.181136, -5.87689
0.180811, -5.85015
0.180488, -5.82341
0.180166, -5.79666
0.179844, -5.76992
0.179525, -5.74317
0.179206, -5.71643
0.178888, -5.68968
0.178571, -5.66294
0.178256, -5.6362
0.177942, -5.60945
0.177628, -5.58271
0.177316, -5.55596
0.1771, -5.53738
0.177005, -5.52932
0.176695, -5.50291
0.176386, -5.47649
0.176079, -5.45008
0.175772, -5.42366
0.175466, -5.39725
0.175162, -5.37083
0.174858, -5.34442
0.174556, -5.318
0.174254, -5.29159
0.173954, -5.26517
0.173655, -5.23876
0.173356, -5.21234
0.173059, -5.18593
0.172763, -5.15951
0.172467, -5.1331
0.172173, -5.10668
0.17188, -5.08027
0.171588, -5.05385
0.171296, -5.02744
0.171006, -5.00102
0.171, -5.00048
0.170717, -4.97962
0.170428, -4.95833
0.170141, -4.93703
0.169855, -4.91573
0.169569, -4.89444
0.169285, -4.87314
0.169001, -4.85185
0.168719, -4.83055
0.168437, -4.80925
0.168156, -4.78796
0.167877, -4.76666
0.167598, -4.74537
0.16732, -4.72407
0.167043, -4.70277
0.166767, -4.68148
0.166492, -4.66018
0.166217, -4.63889
0.165944, -4.61759
0.165672, -4.59629
0.1654, -4.575
0.1653, -4.56713
0.165129, -4.5539
0.16486, -4.53291
0.164591, -4.51192
0.164323, -4.49093
0.164056, -4.46994
0.163789, -4.44895
0.163524, -4.42796
0.163259, -4.40698
0.162996, -4.38599
0.162733, -4.365
0.162471, -4.34401
0.16221, -4.32302
0.161949, -4.30203
0.16169, -4.28104
0.161431, -4.26006
0.161173, -4.23907
0.160916, -4.21808
0.16066, -4.19709
0.160405, -4.1761
0.16015, -4.15511
0.16, -4.14271
0.159896, -4.13525
0.159643, -4.117
0.159391, -4.09876
0.15914, -4.08051
0.158889, -4.06227
0.158639, -4.04402
0.15839, -4.02577
0.158142, -4.00753
0.157895, -3.98928
0.157648, -3.97104
0.157402, -3.95279
0.157157, -3.93455
0.156913, -3.9163
0.156669, -3.89806
0.156426, -3.87981
0.156184, -3.86157
0.155943, -3.84332
0.155702, -3.82508
0.155462, -3.80683
0.155223, -3.78858
0.155, -3.77152
0.154985, -3.77038
0.154747, -3.75276
0.15451, -3.73515
0.154274, -3.71753
0.154038, -3.69991
0.153804, -3.68229
0.153569, -3.66468
0.153336, -3.64706
0.153103, -3.62944
0.152872, -3.61183
0.15264, -3.59421
0.15241, -3.57659
0.15218, -3.55897
0.151951, -3.54136
0.151722, -3.52374
0.151494, -3.50612
0.151267, -3.4885
0.151041, -3.47089
0.150815, -3.45327
0.15059, -3.43565
0.150366, -3.41804
0.1503, -3.41286
0.150142, -3.40338
0.149919, -3.38995
0.149697, -3.37653
0.149475, -3.3631
0.149254, -3.34967
0.149033, -3.33624
0.148814, -3.32282
0.148594, -3.30939
0.148376, -3.29596
0.148158, -3.28254
0.147941, -3.26911
0.147724, -3.25568
0.147508, -3.24226
0.147293, -3.22883
0.147078, -3.2154
0.146864, -3.20198
0.146651, -3.18855
0.146438, -3.17512
0.146226, -3.16169
0.146014, -3.14827
0.1459, -3.141
0.145803, -3.1343
0.145593, -3.11969
0.145383, -3.10509
0.145174, -3.09048
0.144965, -3.07588
0.144757, -3.06127
0.14455, -3.04666
0.144343, -3.03206
0.144137, -3.01745
0.143932, -3.00284
0.143727, -2.98824
0.143522, -2.97363
0.143318, -2.95903
0.143115, -2.94442
0.142912, -2.92981
0.14271, -2.91521
0.142509, -2.9006
0.142308, -2.886
0.142107, -2.87139
0.141907, -2.85678
0.141708, -2.84218
0.1417, -2.84158
0.141509, -2.83108
0.141311, -2.82013
0.141114, -2.80918
0.140917, -2.79823
0.14072, -2.78728
0.140524, -2.77634
0.140329, -2.76539
0.140134, -2.75444
0.139939, -2.74349
0.139746, -2.73254
0.139552, -2.72159
0.13936, -2.71064
0.139168, -2.69969
0.138976, -2.68875
0.138785, -2.6778
0.138594, -2.66685
0.138404, -2.6559
0.138214, -2.64495
0.138025, -2.634
0.137837, -2.62305
0.1378, -2.62091
0.137649, -2.6114
0.137461, -2.59957
0.137274, -2.58774
0.137088, -2.57592
0.136902, -2.56409
0.136716, -2.55226
0.136531, -2.54043
0.136347, -2.5286
0.136163, -2.51678
0.135979, -2.50495
0.135796, -2.49312
0.135614, -2.48129
0.135432, -2.46947
0.13525, -2.45764
0.135069, -2.44581
0.134889, -2.43398
0.134709, -2.42216
0.134529, -2.41033
0.13435, -2.3985
0.134171, -2.38667
0.134, -2.3753
0.133993, -2.37491
0.133816, -2.36474
0.133638, -2.35457
0.133462, -2.3444
0.133285, -2.33423
0.133109, -2.32406
0.132934, -2.31388
0.132759, -2.30371
0.132585, -2.29354
0.132411, -2.28337
0.132237, -2.2732
0.132064, -2.26303
0.131892, -2.25286
0.131719, -2.24269
0.131548, -2.23252
0.131376, -2.22235
0.131206, -2.21218
0.131035, -2.202
0.130865, -2.19183
0.130696, -2.18166
0.130527, -2.17149
0.1305, -2.16988
0.130358, -2.16281
0.13019, -2.15441
0.130022, -2.14601
0.129855, -2.13761
0.129688, -2.12921
0.129522, -2.12081
0.129356, -2.11241
0.12919, -2.10401
0.129025, -2.09561
0.12886, -2.08722
0.128696, -2.07882
0.128532, -2.07042
0.128368, -2.06202
0.128205, -2.05362
0.128042, -2.04522
0.12788, -2.03682
0.127718, -2.02842
0.127557, -2.02002
0.127396, -2.01162
0.127235, -2.00322
0.1272, -2.00138
0.127075, -1.99411
0.126915, -1.9848
0.126756, -1.97549
0.126597, -1.96618
0.126438, -1.95687
0.12628, -1.94756
0.126122, -1.93825
0.125965, -1.92894
0.125808, -1.91962
0.125651, -1.91031
0.125495, -1.901
0.125339, -1.89169
0.125183, -1.88238
0.125028, -1.87307
0.124873, -1.86376
0.124719, -1.85445
0.124565, -1.84514
0.124412, -1.83583
0.124258, -1.82652
0.124106, -1.81721
0.124, -1.81076
0.123953, -1.80839
0.123801, -1.80069
0.123649, -1.79299
0.123498, -1.78529
0.123347, -1.77759
0.123196, -1.76989
0.123046, -1.76218
0.122896, -1.75448
0.122747, -1.74678
0.122598, -1.73908
0.122449, -1.73138
0.122301, -1.72368
0.122153, -1.71597
0.122005, -1.70827
0.121858, -1.70057
0.121711, -1.69287
0.121564, -1.68517
0.121418, -1.67747
0.121272, -1.66977
0.121126, -1.66206
0.121, -1.65538
0.120981, -1.65441
0.120836, -1.64711
0.120692, -1.63981
0.120547, -1.6325
0.120404, -1.6252
0.12026, -1.6179
0.120117, -1.61059
0.119974, -1.60329
0.119832, -1.59598
0.119689, -1.58868
0.119548, -1.58138
0.119406, -1.57407
0.119265, -1.56677
0.119124, -1.55946
0.118984, -1.55216
0.118844, -1.54486
0.118704, -1.53755
0.118564, -1.53025
0.118425, -1.52294
0.118286, -1.51564
0.118148, -1.50834
0.1181, -1.5058
0.11801, -1.50206
0.117872, -1.49632
0.117734, -1.49059
0.117597, -1.48485
0.11746, -1.47912
0.117324, -1.47339
0.117188, -1.46765
0.117052, -1.46192
0.116916, -1.45618
0.116781, -1.45045
0.116646, -1.44471
0.116511, -1.43898
0.116377, -1.43324
0.116243, -1.42751
0.116109, -1.42178
0.115975, -1.41604
0.115842, -1.41031
0.115709, -1.40457
0.115577, -1.39884
0.115445, -1.3931
0.115313, -1.38737
0.1153, -1.38682
0.115181, -1.38166
0.11505, -1.37595
0.114919, -1.37025
0.114788, -1.36454
0.114658, -1.35884
0.114527, -1.35313
0.114398, -1.34743
0.114268, -1.34172
0.114139, -1.33602
0.11401, -1.33031
0.113881, -1.3246
0.113753, -1.3189
0.113625, -1.31319
0.113497, -1.30749
0.113369, -1.30178
0.113242, -1.29608
0.113115, -1.29037
0.112989, -1.28466
0.112862, -1.27896
0.112736, -1.27325
0.1127, -1.27162
0.11261, -1.26773
0.112485, -1.26227
0.11236, -1.25682
0.112235, -1.25136
0.11211, -1.24591
0.111985, -1.24045
0.111861, -1.235
0.111737, -1.22954
0.111614, -1.22409
0.111491, -1.21863
0.111368, -1.21318
0.111245, -1.20772
0.111122, -1.20227
0.111, -1.19681
0.110878, -1.19136
0.110756, -1.1859
0.110635, -1.18045
0.110514, -1.17499
0.110393, -1.16954
0.110272, -1.16408
0.1102, -1.16081
0.110152, -1.15872
0.110032, -1.1535
0.109912, -1.14829
0.109792, -1.14307
0.109673, -1.13785
0.109554, -1.13263
0.109435, -1.12741
0.109317, -1.12219
0.109198, -1.11698
0.10908, -1.11176
0.108962, -1.10654
0.108845, -1.10132
0.108728, -1.0961
0.108611, -1.09089
0.108494, -1.08567
0.108377, -1.08045
0.108261, -1.07523
0.108145, -1.07001
0.108029, -1.06479
0.107914, -1.05958
0.1078, -1.05443
0.107798, -1.05436
0.107683, -1.04939
0.107569, -1.04442
0.107454, -1.03945
0.10734, -1.03448
0.107226, -1.02951
0.107112, -1.02455
0.106998, -1.01958
0.106885, -1.01461
0.106772, -1.00964
0.106659, -1.00467
0.106546, -0.999698
0.106434, -0.994729
0.106322, -0.989759
0.10621, -0.98479
0.106098, -0.979821
0.105987, -0.974851
0.105876, -0.969882
0.105765, -0.964913
0.105654, -0.959943
0.105543, -0.954974
0.1055, -0.953019
0.105433, -0.950288
0.105323, -0.945787
0.105213, -0.941285
0.105104, -0.936783
0.104994, -0.932282
0.104885, -0.92778
0.104776, -0.923279
0.104668, -0.918777
0.104559, -0.914276
0.104451, -0.909774
0.104343, -0.905272
0.104235, -0.900771
0.104128, -0.896269
0.10402, -0.891768
0.103913, -0.887266
0.103806, -0.882765
0.1037, -0.878263
0.103593, -0.873761
0.103487, -0.86926
0.103381, -0.864758
0.1033, -0.86132
0.103275, -0.86034
0.103169, -0.856189
0.103064, -0.852039
0.102959, -0.847888
0.102854, -0.843738
0.102749, -0.839588
0.102645, -0.835437
0.10254, -0.831287
0.102436, -0.827136
0.102332, -0.822986
0.102229, -0.818835
0.102125, -0.814685
0.102022, -0.810535
0.101919, -0.806384
0.101816, -0.802234
0.101714, -0.798083
0.101611, -0.793933
0.101509, -0.789782
0.101407, -0.785632
0.101305, -0.781482
0.101204, -0.777331
0.1012, -0.777188
0.101102, -0.773528
0.101001, -0.769738
0.1009, -0.765948
0.100799, -0.762157
0.100699, -0.758367
0.100598, -0.754576
0.100498, -0.750786
0.100398, -0.746996
0.100298, -0.743205
0.100199, -0.739415
0.100099, -0.735625
0.1, -0.731834
250, 11.6691
200, 11.6725
166.7, 11.6759
125, 11.6827
100, 11.6861
83.33, 11.6896
71.43, 11.6909
62.5, 11.693
50, 11.6943
40, 11.6957
30.3, 11.6964
25, 11.6971
20, 11.6991
15, 11.7012
14.5, 11.7019
13.5, 11.7026
10, 11.7067
9, 11.7094
8, 11.7128
7, 11.7176
6, 11.7251
5, 11.7382
4, 11.7608
3.5, 11.7793
3.4188, 11.7834
3.3033, 11.7889
3, 11.8068
2.7144, 11.8288
2.5, 11.8501
2.4373, 11.857
2, 11.8956
1.8, 11.9564
1.696, 12.0021
1.6, 12.0478
1.532, 12.0993
1.4, 12.1634
1.372, 12.2549
1.2, 12.3855
1.144, 12.4574
1.127, 12.5047
1.078, 12.5961
1.033, 12.6935
0.9919, 12.7971
0.9537, 12.9068
0.9184, 13.0227
0.8856, 13.1435
0.8551, 13.2707
0.8266, 13.4909
0.8157, 13.5497
0.8051, 13.6013
0.7948, 13.6678
0.7847, 13.727
0.7749, 13.7937
0.7653, 13.8458
0.756, 13.8979
0.7469, 13.9576
0.738, 14.0249
0.7293, 14.0774
0.7208, 14.145
0.7126, 14.1977
0.7045, 14.2731
0.6965, 14.3412
0.6888, 14.4094
0.6812, 14.4779
0.6738, 14.554
0.6666, 14.6381
0.6595, 14.7223
0.6526, 14.7992
0.6458, 14.8839
0.6391, 14.9766
0.6326, 15.0696
0.6262, 15.155
0.6199, 15.2564
0.6138, 15.3501
0.6078, 15.4521
0.6019, 15.5466
0.5961, 15.6492
0.5904, 15.7521
0.5848, 15.8634
0.5794, 15.9753
0.574, 16.0952
0.5687, 16.2075
0.5636, 16.3367
0.5585, 16.4578
0.5535, 16.5883
0.5486, 16.718
0.5438, 16.8573
0.5391, 16.9968
0.5344, 17.1376
0.5299, 17.2954
0.5254, 17.4445
0.5209, 17.6033
0.5166, 17.7626
0.5123, 17.9316
0.5081, 18.0998
0.504, 18.2884
0.4999, 18.4675
0.4959, 18.6571
0.492, 18.8557
0.4881, 19.0644
0.4843, 19.274
0.4806, 19.4922
0.4769, 19.7233
0.4732, 19.9308
0.4696, 20.1906
0.4661, 20.4305
0.4626, 20.7126
0.4592, 20.987
0.4558, 21.2811
0.4525, 21.5862
0.4492, 21.8989
0.446, 22.2373
0.4428, 22.5644
0.4397, 22.9248
0.4366, 23.3043
0.4335, 23.7022
0.4305, 24.1294
0.4275, 24.5703
0.4246, 25.0456
0.4217, 25.5314
0.4189, 26.0423
0.4161, 26.6019
0.4133, 27.1969
0.4105, 27.836
0.4078, 28.5138
0.4052, 29.2682
0.4025, 30.047
0.4, 30.8751
0.3974, 31.7947
0.3949, 32.7856
0.3924, 33.8739
0.3899, 35.064
0.3875, 36.3509
0.385, 37.7444
0.3827, 39.2276
0.3803, 40.7353
0.378, 42.1301
0.3757, 43.2683
0.3734, 43.73
0.3712, 43.1383
0.369, 41.4767
0.3668, 38.7714
0.3647, 35.1924
0.3625, 31.4965
0.3604, 28.1955
0.3583, 25.6188
0.3563, 23.6864
0.3542, 22.412
0.3522, 21.4152
0.3502, 20.6753
0.3483, 20.0963
0.3463, 19.5925
0.3444, 19.1075
0.3425, 18.6781
0.3406, 18.3033
0.3388, 17.9612
0.3369, 17.5804
0.3351, 17.2207
0.3333, 16.8716
0.3315, 16.5532
0.3297, 16.1621
0.328, 15.8737
0.3263, 15.5418
0.3246, 15.2186
0.3229, 14.904
0.3212, 14.5324
0.3195, 14.2543
0.3179, 13.9378
0.3163, 13.628
0.3147, 13.3252
0.3131, 13.0106
0.3115, 12.6362
0.31, 12.2335
0.3084, 11.8277
0.3069, 11.3419
0.3054, 10.7756
0.3039, 10.1172
0.3024, 9.36796
0.3009, 8.42475
0.2995, 7.31638
0.298, 5.9783
0.2966, 4.34308
0.2952, 2.37222
0.2938, -0.067319
0.2924, -2.93153
0.291, -6.12934
0.2897, -9.45548
0.2883, -12.4106
0.287, -14.7679
0.2857, -16.3333
0.2844, -17.4503
0.2831, -18.2164
0.2818, -18.8239
0.2805, -19.2877
0.2792, -19.6102
0.278, -19.8124
0.2768, -19.8867
0.2755, -19.8193
0.2743, -19.6392
0.2731, -19.3437
0.2719, -18.9332
0.2707, -18.4562
0.2695, -17.9315
0.2684, -17.3548
0.2672, -16.7922
0.2661, -16.2369
0.2649, -15.7041
0.2638, -15.1896
0.2627, -14.7154
0.2616, -14.2798
0.2605, -13.8489
0.2594, -13.45
0.2583, -13.0835
0.2572, -12.7297
0.2562, -12.4008
0.2551, -12.0893
0.2541, -11.7709
0.253, -11.5046
0.252, -11.2254
0.251, -10.9598
0.25, -10.695
0.249, -10.465
0.248, -10.2443
0.247, -10.0203
0.246, -9.81939
0.245, -9.62777
0.2441, -9.4445
0.2431, -9.29
0.2422, -9.14013
0.2412, -8.99208
0.2403, -8.89465
0.2394, -8.79437
0.2384, -8.7244
0.2375, -8.66794
0.2366, -8.65105
0.2357, -8.65424
0.2348, -8.68349
0.2339, -8.74937
0.2331, -8.82381
0.2322, -8.92019
0.2313, -9.01475
0.2305, -9.08742
0.2296, -9.16611
0.2288, -9.19486
0.2279, -9.21744
0.2271, -9.18623
0.2263, -9.16072
0.2254, -9.1076
0.2246, -9.05146
0.2238, -8.98589
0.223, -8.89163
0.2222, -8.81976
0.2214, -8.72343
0.2206, -8.65088
0.2198, -8.54928
0.2191, -8.45598
0.2183, -8.4002
0.2175, -8.29214
0.2168, -8.24178
0.216, -8.1685
0.2153, -8.1093
0.2145, -8.0724
0.2138, -7.98834
0.213, -7.89846
0.2123, -7.86034
0.2116, -7.81562
0.2109, -7.73843
0.2101, -7.71944
0.2094, -7.63447
0.2087, -7.48961
0.208, -7.57302
0.2073, -7.49989
0.2066, -8.0704
0.2066, -7.44218
0.1984, -7.41508
0.1907, -6.73549
0.1837, -6.08486
0.1771, -5.53738
0.171, -5.00048
0.1653, -4.56713
0.16, -4.14271
0.155, -3.77152
0.1503, -3.41286
0.1459, -3.141
0.1417, -2.84158
0.1378, -2.62091
0.134, -2.3753
0.1305, -2.16988
0.1272, -2.00138
0.124, -1.81076
0.121, -1.65538
0.1181, -1.5058
0.1153, -1.38682
0.1127, -1.27162
0.1102, -1.16081
0.1078, -1.05443
0.1055, -0.953019
0.1033, -0.86132
0.1012, -0.777188
0.09919, -0.7006
0.09724, -0.628353
0.09537, -0.5607
0.09357, -0.497383
0.09184, -0.439571
0.09017, -0.385968
0.08856, -0.335256
0.087, -0.289488
0.08551, -0.245385
0.08406, -0.205065
0.08266, -0.167684
0.0813, -0.131472
0.07999, -0.098171
0.07872, -0.066352
0.07749, -0.036211
0.0763, -0.00724
0.07514, 0.019197
0.07469, 0.028987
0.07424, 0.039312
0.0738, 0.0504
0.07293, 0.069993
0.07187, 0.093296
0.07085, 0.116451
0.06985, 0.137431
0.06888, 0.159064
0.06702, 0.199504
0.06526, 0.237627
0.065, 0.2504
0.064, 0.2709
0.06358, 0.274164
0.063, 0.292752
0.062, 0.314517
0.061, 0.342624
0.06, 0.367875
0.059, 0.389765
0.058, 0.412135
0.057, 0.432211
0.056, 0.453985
0.055, 0.476149
0.054, 0.49738
0.053, 0.520431
0.052, 0.542472
0.051, 0.564914
0.05, 0.586259
0.049, 0.604864
0.048, 0.626895
0.047, 0.644492
0.046, 0.662314
0.045, 0.678726
0.044, 0.695325
0.043, 0.710433
0.042, 0.727407
0.041, 0.73941
0.04, 0.754979
0.039, 0.768955
0.038, 0.783061
0.037, 0.797295
0.036, 0.808055
0.035, 0.820699
0.034, 0.833441
0.033, 0.842624
0.032, 0.855517
0.031, 0.8648
0.03, 0.877879
0.029, 0.887283
0.028, 0.896738
0.027, 0.906242
0.026, 0.913883
0.025, 0.921555
0.024, 0.929259
0.023, 0.936993
0.022, 0.944759
0.021, 0.952556
0.02, 0.956469
0.019, 0.964312
0.018, 0.970216
0.017, 0.976138
0.016, 0.982076
0.015, 0.986046
0.014, 0.999998
0.0136, 1.01606
0.0132, 1.04448
0.013, 1.0609
0.0128, 1.06915
0.0126, 1.06915
0.0125, 1.06915
0.0124, 1.06502
0.0123, 1.06088
0.0122, 1.05005
0.01216, 1.04809
0.01192, 1.02592
0.01159, 1.01344
0.01127, 1.00724
0.01107, 1.00426
0.01078, 1.00109
0.01051, 0.998681
0.01025, 0.996673
0.009998, 0.995041
0.009762, 0.993709
0.009537, 0.992536
0.009322, 0.991543
0.009116, 0.990665
0.008856, 0.989632
0.00867, 0.988933
0.008434, 0.988059
0.008266, 0.987456
0.008051, 0.986597
0.007847, 0.98556
0.007653, 0.984548
0.007469, 0.984548
0.007293, 0.983424
0.007125, 0.983263
0.006965, 0.98322
0.006812, 0.983235
0.00663, 0.983309
0.006491, 0.98336
0.006325, 0.98357
0.006168, 0.983838
0.006018, 0.984125
0.005876, 0.98439
0.00574, 0.984734
0.00561, 0.985097
0.005462, 0.98556
0.005344, 0.985941
0.005209, 0.986382
0.005081, 0.986803
0.004959, 0.987243
0.004843, 0.987663
0.004732, 0.988082
0.004609, 0.988562
0.004508, 0.988941
0.004396, 0.98938
0.00429, 0.989799
0.004188, 0.990198
0.004092, 0.990577
0.003986, 0.990996
0.003899, 0.991335
0.003803, 0.991714
0.003712, 0.992053
0.003625, 0.992392
0.003532, 0.992731
0.003453, 0.99303
0.003369, 0.99335
0.003289, 0.993649
0.003212, 0.993908
0.003131, 0.994208
0.003054, 0.994467
0.002987, 0.994706
0.00291, 0.994966
0.002844, 0.995185
0.002774, 0.995405
0.002707, 0.995624
0.002643, 0.995824
0.002583, 0.996004
0.00252, 0.996203
0.00246, 0.996383
0.002403, 0.996543
0.002344, 0.996723
0.002287, 0.996862
0.002234, 0.997022
0.002179, 0.997162
0.002127, 0.997302
0.002077, 0.997422
0.002026, 0.997561
0.001977, 0.997661
0.001931, 0.997781
0.001884, 0.997881
0.001839, 0.997981
0.001797, 0.998083
0.001754, 0.998177
0.00171, 0.998269
0.001671, 0.998349
0.001631, 0.998429
0.001592, 0.998507
0.001554, 0.998578
0.001516, 0.99865
0.001479, 0.998716
0.001445, 0.998776
0.00141, 0.998836
0.001376, 0.998894
0.001343, 0.998948
0.001312, 0.999
0.001281, 0.999048
0.00125, 0.999096
0.00122, 0.99914
0.001191, 0.999182
0.001162, 0.999224
0.001134, 0.999262
0.001108, 0.999298
0.001081, 0.999334
0.001055, 0.999368
0.00103, 0.9994
0.001005, 0.99943
0.0009816, 0.999458
0.0009581, 0.999486
0.000935, 0.999512
0.0009129, 0.999538
0.0008906, 0.999562
0.0008694, 0.999584
0.0008492, 0.999606
0.0008287, 0.999628
0.0008087, 0.999648
0.0007897, 0.999668
0.0007705, 0.999688
0.0007523, 0.999708
0.0007345, 0.999726
0.0007166, 0.999748
0.0006997, 0.99977
0.0006831, 0.999823
0.0006665, 0.999864
0.0006508, 0.999844
0.0006351, 0.999826
0.0006199, 0.99981



